;PC Software:StarLab Version 3.80 Build 2
! ******* Warning: Do not modify this file. Changes may prevent   ********
! ******* the StarLab Log reader from opening the file correctly. ********
;Logged:22/11/2022 at 17:59:47
;File Version:5
;Time Resolution:1 microseconds
;Log Settings:Stop after:period: 00:05:00
;Graph Mode:Merge
;Graph Type:Line
;Notes:                                                            

;Channel A:Vega Thermopile 3A (s/n:947746)  VG2.54 (s/n:858327)

;Channel A:Details
;Name:3A
;Graph Color:RGB(14,104,168)
;Units:W
;Settings:Measuring:Power
;Settings:Wavelength:532
;Settings:Range:AUTO

;Channel A:Statistics
;Min:6.240mW             
;Max:96.80mW             
;Average:72.47mW             
;Std.Dev.:25.18mW             
;Overrange:0                   
;--------------------


;First Pulse Arrived : 22/11/2022 at 17:59:48
  Timestamp   	  Channel A  	
         0.000	  9.270e-02 	
         0.064	  9.270e-02 	
         0.128	  9.260e-02 	
         0.191	  9.260e-02 	
         0.256	  9.260e-02 	
         0.320	  9.250e-02 	
         0.384	  9.250e-02 	
         0.448	  9.250e-02 	
         0.512	  9.240e-02 	
         0.577	  9.250e-02 	
         0.672	  9.250e-02 	
         0.737	  9.260e-02 	
         0.800	  9.260e-02 	
         0.865	  9.270e-02 	
         0.929	  9.280e-02 	
         0.993	  9.290e-02 	
         1.056	  9.300e-02 	
         1.121	  9.310e-02 	
         1.184	  9.310e-02 	
         1.248	  9.320e-02 	
         1.312	  9.320e-02 	
         1.377	  9.320e-02 	
         1.472	  9.320e-02 	
         1.537	  9.320e-02 	
         1.600	  9.310e-02 	
         1.665	  9.310e-02 	
         1.728	  9.310e-02 	
         1.793	  9.310e-02 	
         1.855	  9.300e-02 	
         1.920	  9.300e-02 	
         1.984	  9.300e-02 	
         2.049	  9.290e-02 	
         2.112	  9.290e-02 	
         2.177	  9.290e-02 	
         2.273	  9.290e-02 	
         2.336	  9.290e-02 	
         2.400	  9.290e-02 	
         2.464	  9.290e-02 	
         2.528	  9.290e-02 	
         2.593	  9.300e-02 	
         2.657	  9.300e-02 	
         2.721	  9.300e-02 	
         2.784	  9.310e-02 	
         2.848	  9.310e-02 	
         2.911	  9.310e-02 	
         2.976	  9.310e-02 	
         3.072	  9.310e-02 	
         3.137	  9.310e-02 	
         3.200	  9.310e-02 	
         3.265	  9.320e-02 	
         3.327	  9.310e-02 	
         3.393	  9.310e-02 	
         3.456	  9.310e-02 	
         3.521	  9.310e-02 	
         3.585	  9.310e-02 	
         3.649	  9.300e-02 	
         3.712	  9.300e-02 	
         3.777	  9.300e-02 	
         3.873	  9.300e-02 	
         3.936	  9.290e-02 	
         4.000	  9.290e-02 	
         4.065	  9.290e-02 	
         4.128	  9.280e-02 	
         4.193	  9.280e-02 	
         4.256	  9.270e-02 	
         4.320	  9.260e-02 	
         4.384	  9.260e-02 	
         4.448	  9.250e-02 	
         4.512	  9.250e-02 	
         4.577	  9.240e-02 	
         4.673	  9.240e-02 	
         4.737	  9.230e-02 	
         4.800	  9.230e-02 	
         4.864	  9.230e-02 	
         4.928	  9.220e-02 	
         4.993	  9.220e-02 	
         5.055	  9.220e-02 	
         5.120	  9.220e-02 	
         5.185	  9.210e-02 	
         5.248	  9.210e-02 	
         5.312	  9.200e-02 	
         5.375	  9.200e-02 	
         5.472	  9.200e-02 	
         5.537	  9.200e-02 	
         5.601	  9.190e-02 	
         5.664	  9.190e-02 	
         5.728	  9.190e-02 	
         5.792	  9.180e-02 	
         5.857	  9.180e-02 	
         5.921	  9.170e-02 	
         5.985	  9.170e-02 	
         6.049	  9.170e-02 	
         6.112	  9.170e-02 	
         6.177	  9.170e-02 	
         6.272	  9.160e-02 	
         6.336	  9.160e-02 	
         6.400	  9.160e-02 	
         6.464	  9.160e-02 	
         6.527	  9.150e-02 	
         6.592	  9.150e-02 	
         6.656	  9.150e-02 	
         6.721	  9.150e-02 	
         6.784	  9.140e-02 	
         6.848	  9.140e-02 	
         6.912	  9.140e-02 	
         6.977	  9.140e-02 	
         7.072	  9.140e-02 	
         7.136	  9.140e-02 	
         7.200	  9.140e-02 	
         7.265	  9.140e-02 	
         7.328	  9.140e-02 	
         7.393	  9.130e-02 	
         7.457	  9.130e-02 	
         7.521	  9.130e-02 	
         7.585	  9.120e-02 	
         7.648	  9.120e-02 	
         7.712	  9.110e-02 	
         7.776	  9.110e-02 	
         7.872	  9.100e-02 	
         7.937	  9.100e-02 	
         8.001	  9.090e-02 	
         8.064	  9.090e-02 	
         8.128	  9.080e-02 	
         8.192	  9.070e-02 	
         8.257	  9.070e-02 	
         8.320	  9.060e-02 	
         8.385	  9.050e-02 	
         8.449	  9.050e-02 	
         8.512	  9.040e-02 	
         8.577	  9.040e-02 	
         8.672	  9.030e-02 	
         8.737	  9.030e-02 	
         8.800	  9.020e-02 	
         8.864	  9.020e-02 	
         8.928	  9.010e-02 	
         8.992	  9.010e-02 	
         9.057	  9.010e-02 	
         9.120	  9.000e-02 	
         9.185	  9.000e-02 	
         9.249	  8.990e-02 	
         9.312	  8.990e-02 	
         9.377	  8.980e-02 	
         9.473	  8.980e-02 	
         9.536	  8.990e-02 	
         9.600	  8.990e-02 	
         9.665	  8.990e-02 	
         9.728	  8.990e-02 	
         9.793	  8.990e-02 	
         9.857	  8.980e-02 	
         9.921	  8.980e-02 	
         9.984	  8.980e-02 	
        10.048	  8.970e-02 	
        10.112	  8.970e-02 	
        10.177	  8.970e-02 	
        10.241	  8.970e-02 	
        10.337	  8.970e-02 	
        10.400	  8.970e-02 	
        10.465	  8.970e-02 	
        10.528	  8.970e-02 	
        10.593	  8.960e-02 	
        10.657	  8.960e-02 	
        10.721	  8.950e-02 	
        10.785	  8.940e-02 	
        10.848	  8.930e-02 	
        10.912	  8.920e-02 	
        10.976	  8.920e-02 	
        11.072	  8.910e-02 	
        11.136	  8.900e-02 	
        11.200	  8.890e-02 	
        11.265	  8.890e-02 	
        11.328	  8.880e-02 	
        11.393	  8.870e-02 	
        11.457	  8.860e-02 	
        11.520	  8.850e-02 	
        11.585	  8.840e-02 	
        11.649	  8.830e-02 	
        11.711	  8.830e-02 	
        11.777	  8.820e-02 	
        11.841	  8.820e-02 	
        11.936	  8.820e-02 	
        12.001	  8.810e-02 	
        12.064	  8.810e-02 	
        12.128	  8.810e-02 	
        12.192	  8.800e-02 	
        12.257	  8.800e-02 	
        12.321	  8.800e-02 	
        12.384	  8.800e-02 	
        12.448	  8.800e-02 	
        12.512	  8.800e-02 	
        12.577	  8.800e-02 	
        12.641	  8.790e-02 	
        12.736	  8.790e-02 	
        12.801	  8.790e-02 	
        12.865	  8.780e-02 	
        12.928	  8.780e-02 	
        12.993	  8.770e-02 	
        13.056	  8.770e-02 	
        13.121	  8.760e-02 	
        13.185	  8.750e-02 	
        13.248	  8.750e-02 	
        13.311	  8.740e-02 	
        13.376	  8.740e-02 	
        13.441	  8.740e-02 	
        13.537	  8.730e-02 	
        13.600	  8.730e-02 	
        13.665	  8.730e-02 	
        13.728	  8.720e-02 	
        13.793	  8.720e-02 	
        13.856	  8.710e-02 	
        13.921	  8.710e-02 	
        13.984	  8.710e-02 	
        14.048	  8.710e-02 	
        14.112	  8.700e-02 	
        14.176	  8.700e-02 	
        14.241	  8.700e-02 	
        14.337	  8.700e-02 	
        14.400	  8.700e-02 	
        14.465	  8.690e-02 	
        14.528	  8.690e-02 	
        14.593	  8.680e-02 	
        14.657	  8.670e-02 	
        14.721	  8.660e-02 	
        14.785	  8.650e-02 	
        14.848	  8.650e-02 	
        14.912	  8.640e-02 	
        14.976	  8.630e-02 	
        15.040	  8.630e-02 	
        15.136	  8.620e-02 	
        15.200	  8.620e-02 	
        15.264	  8.610e-02 	
        15.327	  8.610e-02 	
        15.393	  8.610e-02 	
        15.456	  8.610e-02 	
        15.521	  8.600e-02 	
        15.585	  8.600e-02 	
        15.648	  8.600e-02 	
        15.712	  8.600e-02 	
        15.776	  8.600e-02 	
        15.841	  8.600e-02 	
        15.937	  8.600e-02 	
        16.000	  8.600e-02 	
        16.065	  8.590e-02 	
        16.128	  8.590e-02 	
        16.192	  8.590e-02 	
        16.256	  8.590e-02 	
        16.320	  8.590e-02 	
        16.385	  8.580e-02 	
        16.447	  8.580e-02 	
        16.512	  8.580e-02 	
        16.576	  8.570e-02 	
        16.641	  8.570e-02 	
        16.737	  8.560e-02 	
        16.800	  8.560e-02 	
        16.864	  8.560e-02 	
        16.928	  8.560e-02 	
        16.992	  8.550e-02 	
        17.057	  8.550e-02 	
        17.120	  8.540e-02 	
        17.185	  8.540e-02 	
        17.248	  8.540e-02 	
        17.312	  8.540e-02 	
        17.376	  8.530e-02 	
        17.440	  8.530e-02 	
        17.536	  8.520e-02 	
        17.601	  8.510e-02 	
        17.665	  8.510e-02 	
        17.728	  8.500e-02 	
        17.793	  8.490e-02 	
        17.857	  8.480e-02 	
        17.921	  8.460e-02 	
        17.985	  8.450e-02 	
        18.048	  8.440e-02 	
        18.112	  8.420e-02 	
        18.176	  8.410e-02 	
        18.241	  8.400e-02 	
        18.337	  8.380e-02 	
        18.400	  8.370e-02 	
        18.465	  8.360e-02 	
        18.528	  8.350e-02 	
        18.593	  8.350e-02 	
        18.656	  8.340e-02 	
        18.721	  8.330e-02 	
        18.785	  8.330e-02 	
        18.848	  8.320e-02 	
        18.913	  8.320e-02 	
        18.976	  8.320e-02 	
        19.041	  8.310e-02 	
        19.137	  8.310e-02 	
        19.200	  8.310e-02 	
        19.264	  8.310e-02 	
        19.328	  8.300e-02 	
        19.392	  8.300e-02 	
        19.457	  8.300e-02 	
        19.520	  8.300e-02 	
        19.585	  8.300e-02 	
        19.649	  8.290e-02 	
        19.712	  8.290e-02 	
        19.776	  8.290e-02 	
        19.840	  8.280e-02 	
        19.936	  8.280e-02 	
        20.001	  8.270e-02 	
        20.064	  8.270e-02 	
        20.128	  8.270e-02 	
        20.193	  8.260e-02 	
        20.256	  8.260e-02 	
        20.321	  8.260e-02 	
        20.384	  8.250e-02 	
        20.447	  8.250e-02 	
        20.512	  8.240e-02 	
        20.576	  8.240e-02 	
        20.641	  8.230e-02 	
        20.737	  8.230e-02 	
        20.801	  8.220e-02 	
        20.864	  8.210e-02 	
        20.928	  8.200e-02 	
        20.992	  8.190e-02 	
        21.056	  8.170e-02 	
        21.120	  8.160e-02 	
        21.184	  8.150e-02 	
        21.248	  8.130e-02 	
        21.312	  8.120e-02 	
        21.376	  8.110e-02 	
        21.441	  8.100e-02 	
        21.536	  8.090e-02 	
        21.601	  8.080e-02 	
        21.664	  8.070e-02 	
        21.728	  8.060e-02 	
        21.792	  8.050e-02 	
        21.856	  8.040e-02 	
        21.921	  8.030e-02 	
        21.985	  8.020e-02 	
        22.049	  8.010e-02 	
        22.113	  8.010e-02 	
        22.176	  8.010e-02 	
        22.241	  8.000e-02 	
        22.336	  8.000e-02 	
        22.400	  8.000e-02 	
        22.465	  7.990e-02 	
        22.528	  7.990e-02 	
        22.592	  7.990e-02 	
        22.657	  7.990e-02 	
        22.720	  7.990e-02 	
        22.785	  7.980e-02 	
        22.849	  7.970e-02 	
        22.912	  7.960e-02 	
        22.975	  7.950e-02 	
        23.041	  7.940e-02 	
        23.136	  7.930e-02 	
        23.200	  7.920e-02 	
        23.264	  7.910e-02 	
        23.328	  7.890e-02 	
        23.391	  7.880e-02 	
        23.457	  7.870e-02 	
        23.521	  7.860e-02 	
        23.585	  7.840e-02 	
        23.648	  7.830e-02 	
        23.712	  7.820e-02 	
        23.776	  7.800e-02 	
        23.841	  7.790e-02 	
        23.904	  7.780e-02 	
        24.001	  7.760e-02 	
        24.064	  7.750e-02 	
        24.128	  7.730e-02 	
        24.192	  7.720e-02 	
        24.257	  7.710e-02 	
        24.321	  7.690e-02 	
        24.384	  7.680e-02 	
        24.449	  7.670e-02 	
        24.512	  7.650e-02 	
        24.576	  7.640e-02 	
        24.641	  7.630e-02 	
        24.705	  7.620e-02 	
        24.801	  7.610e-02 	
        24.865	  7.600e-02 	
        24.928	  7.590e-02 	
        24.992	  7.590e-02 	
        25.056	  7.580e-02 	
        25.121	  7.580e-02 	
        25.185	  7.580e-02 	
        25.248	  7.570e-02 	
        25.313	  7.570e-02 	
        25.376	  7.570e-02 	
        25.441	  7.560e-02 	
        25.505	  7.560e-02 	
        25.600	  7.560e-02 	
        25.665	  7.550e-02 	
        25.728	  7.550e-02 	
        25.792	  7.550e-02 	
        25.857	  7.550e-02 	
        25.920	  7.540e-02 	
        25.984	  7.540e-02 	
        26.047	  7.540e-02 	
        26.112	  7.540e-02 	
        26.176	  7.530e-02 	
        26.241	  7.530e-02 	
        26.305	  7.520e-02 	
        26.400	  7.510e-02 	
        26.464	  7.490e-02 	
        26.528	  7.480e-02 	
        26.592	  7.470e-02 	
        26.657	  7.460e-02 	
        26.720	  7.440e-02 	
        26.784	  7.430e-02 	
        26.848	  7.420e-02 	
        26.911	  7.410e-02 	
        26.976	  7.400e-02 	
        27.040	  7.390e-02 	
        27.105	  7.370e-02 	
        27.201	  7.360e-02 	
        27.265	  7.340e-02 	
        27.328	  7.320e-02 	
        27.391	  7.310e-02 	
        27.456	  7.290e-02 	
        27.521	  7.270e-02 	
        27.584	  7.260e-02 	
        27.648	  7.240e-02 	
        27.712	  7.220e-02 	
        27.776	  7.210e-02 	
        27.840	  7.190e-02 	
        27.904	  7.180e-02 	
        28.000	  7.170e-02 	
        28.065	  7.160e-02 	
        28.128	  7.160e-02 	
        28.192	  7.150e-02 	
        28.256	  7.150e-02 	
        28.321	  7.150e-02 	
        28.385	  7.140e-02 	
        28.447	  7.140e-02 	
        28.511	  7.150e-02 	
        28.576	  7.150e-02 	
        28.640	  7.150e-02 	
        28.705	  7.150e-02 	
        28.800	  7.150e-02 	
        28.864	  7.150e-02 	
        28.928	  7.150e-02 	
        28.992	  7.150e-02 	
        29.057	  7.140e-02 	
        29.119	  7.140e-02 	
        29.185	  7.140e-02 	
        29.249	  7.130e-02 	
        29.312	  7.120e-02 	
        29.376	  7.100e-02 	
        29.440	  7.090e-02 	
        29.504	  7.080e-02 	
        29.601	  7.060e-02 	
        29.664	  7.040e-02 	
        29.728	  7.020e-02 	
        29.791	  7.000e-02 	
        29.857	  6.980e-02 	
        29.921	  6.960e-02 	
        29.984	  6.940e-02 	
        30.048	  6.920e-02 	
        30.112	  6.890e-02 	
        30.176	  6.870e-02 	
        30.240	  6.850e-02 	
        30.304	  6.830e-02 	
        30.400	  6.810e-02 	
        30.465	  6.790e-02 	
        30.528	  6.760e-02 	
        30.591	  6.740e-02 	
        30.657	  6.730e-02 	
        30.721	  6.710e-02 	
        30.784	  6.690e-02 	
        30.848	  6.680e-02 	
        30.912	  6.670e-02 	
        30.976	  6.660e-02 	
        31.041	  6.650e-02 	
        31.105	  6.650e-02 	
        31.200	  6.650e-02 	
        31.265	  6.650e-02 	
        31.329	  6.660e-02 	
        31.392	  6.670e-02 	
        31.457	  6.680e-02 	
        31.521	  6.690e-02 	
        31.585	  6.710e-02 	
        31.648	  6.720e-02 	
        31.712	  6.740e-02 	
        31.776	  6.750e-02 	
        31.840	  6.770e-02 	
        31.905	  6.780e-02 	
        32.001	  6.790e-02 	
        32.064	  6.800e-02 	
        32.128	  6.810e-02 	
        32.192	  6.810e-02 	
        32.257	  6.820e-02 	
        32.320	  6.820e-02 	
        32.384	  6.820e-02 	
        32.449	  6.820e-02 	
        32.512	  6.810e-02 	
        32.575	  6.810e-02 	
        32.641	  6.800e-02 	
        32.704	  6.800e-02 	
        32.801	  6.790e-02 	
        32.865	  6.770e-02 	
        32.928	  6.760e-02 	
        32.992	  6.740e-02 	
        33.057	  6.730e-02 	
        33.121	  6.710e-02 	
        33.185	  6.690e-02 	
        33.248	  6.660e-02 	
        33.313	  6.640e-02 	
        33.376	  6.620e-02 	
        33.441	  6.590e-02 	
        33.505	  6.570e-02 	
        33.600	  6.550e-02 	
        33.665	  6.520e-02 	
        33.728	  6.500e-02 	
        33.792	  6.480e-02 	
        33.855	  6.460e-02 	
        33.920	  6.450e-02 	
        33.985	  6.430e-02 	
        34.048	  6.420e-02 	
        34.113	  6.420e-02 	
        34.175	  6.420e-02 	
        34.241	  6.420e-02 	
        34.304	  6.420e-02 	
        34.401	  6.420e-02 	
        34.464	  6.430e-02 	
        34.529	  6.440e-02 	
        34.592	  6.450e-02 	
        34.657	  6.460e-02 	
        34.721	  6.480e-02 	
        34.785	  6.490e-02 	
        34.848	  6.500e-02 	
        34.912	  6.510e-02 	
        34.976	  6.530e-02 	
        35.040	  6.540e-02 	
        35.105	  6.560e-02 	
        35.201	  6.570e-02 	
        35.264	  6.580e-02 	
        35.328	  6.590e-02 	
        35.392	  6.600e-02 	
        35.456	  6.600e-02 	
        35.521	  6.610e-02 	
        35.585	  6.610e-02 	
        35.649	  6.600e-02 	
        35.713	  6.600e-02 	
        35.776	  6.590e-02 	
        35.840	  6.580e-02 	
        35.904	  6.560e-02 	
        35.999	  6.540e-02 	
        36.065	  6.510e-02 	
        36.128	  6.480e-02 	
        36.192	  6.450e-02 	
        36.256	  6.410e-02 	
        36.321	  6.370e-02 	
        36.384	  6.330e-02 	
        36.448	  6.290e-02 	
        36.513	  6.250e-02 	
        36.576	  6.210e-02 	
        36.640	  6.180e-02 	
        36.705	  6.150e-02 	
        36.800	  6.120e-02 	
        36.865	  6.090e-02 	
        36.928	  6.070e-02 	
        36.992	  6.050e-02 	
        37.057	  6.030e-02 	
        37.120	  6.010e-02 	
        37.185	  5.990e-02 	
        37.249	  5.980e-02 	
        37.312	  5.970e-02 	
        37.377	  5.960e-02 	
        37.440	  5.960e-02 	
        37.504	  5.960e-02 	
        37.569	  5.970e-02 	
        37.664	  5.980e-02 	
        37.729	  5.990e-02 	
        37.792	  6.010e-02 	
        37.856	  6.020e-02 	
        37.921	  6.050e-02 	
        37.983	  6.070e-02 	
        38.049	  6.100e-02 	
        38.113	  6.120e-02 	
        38.176	  6.150e-02 	
        38.240	  6.170e-02 	
        38.305	  6.190e-02 	
        38.369	  6.200e-02 	
        38.464	  6.210e-02 	
        38.527	  6.220e-02 	
        38.592	  6.230e-02 	
        38.656	  6.230e-02 	
        38.721	  6.230e-02 	
        38.785	  6.220e-02 	
        38.849	  6.210e-02 	
        38.913	  6.200e-02 	
        38.976	  6.180e-02 	
        39.040	  6.160e-02 	
        39.104	  6.140e-02 	
        39.169	  6.110e-02 	
        39.265	  6.080e-02 	
        39.328	  6.040e-02 	
        39.392	  6.000e-02 	
        39.457	  5.960e-02 	
        39.520	  5.910e-02 	
        39.583	  5.860e-02 	
        39.648	  5.820e-02 	
        39.712	  5.770e-02 	
        39.776	  5.720e-02 	
        39.840	  5.680e-02 	
        39.905	  5.640e-02 	
        39.968	  5.600e-02 	
        40.064	  5.560e-02 	
        40.129	  5.530e-02 	
        40.192	  5.500e-02 	
        40.256	  5.480e-02 	
        40.321	  5.460e-02 	
        40.385	  5.450e-02 	
        40.449	  5.440e-02 	
        40.512	  5.440e-02 	
        40.576	  5.430e-02 	
        40.640	  5.440e-02 	
        40.705	  5.440e-02 	
        40.769	  5.450e-02 	
        40.865	  5.460e-02 	
        40.929	  5.480e-02 	
        40.992	  5.490e-02 	
        41.056	  5.510e-02 	
        41.120	  5.530e-02 	
        41.184	  5.550e-02 	
        41.249	  5.560e-02 	
        41.313	  5.580e-02 	
        41.376	  5.600e-02 	
        41.440	  5.610e-02 	
        41.504	  5.620e-02 	
        41.569	  5.640e-02 	
        41.664	  5.640e-02 	
        41.727	  5.650e-02 	
        41.792	  5.650e-02 	
        41.856	  5.640e-02 	
        41.921	  5.640e-02 	
        41.984	  5.620e-02 	
        42.048	  5.600e-02 	
        42.112	  5.570e-02 	
        42.176	  5.530e-02 	
        42.240	  5.490e-02 	
        42.305	  5.440e-02 	
        42.369	  5.380e-02 	
        42.465	  5.320e-02 	
        42.528	  5.250e-02 	
        42.592	  5.180e-02 	
        42.656	  5.110e-02 	
        42.721	  5.040e-02 	
        42.785	  4.970e-02 	
        42.848	  4.910e-02 	
        42.912	  4.840e-02 	
        42.977	  4.780e-02 	
        43.039	  4.720e-02 	
        43.105	  4.670e-02 	
        43.168	  4.620e-02 	
        43.265	  4.570e-02 	
        43.329	  4.530e-02 	
        43.392	  4.500e-02 	
        43.456	  4.470e-02 	
        43.521	  4.450e-02 	
        43.585	  4.440e-02 	
        43.649	  4.430e-02 	
        43.712	  4.430e-02 	
        43.776	  4.440e-02 	
        43.839	  4.460e-02 	
