;PC Software:StarLab Version 3.80 Build 2
! ******* Warning: Do not modify this file. Changes may prevent   ********
! ******* the StarLab Log reader from opening the file correctly. ********
;Logged:23/11/2022 at 17:25:59
;File Version:5
;Time Resolution:1 microseconds
;Log Settings:Stop after:period: 00:05:00
;Graph Mode:Merge
;Graph Type:Line
;Notes:                                                            

;Channel A:Vega Thermopile 3A (s/n:947746)  VG2.54 (s/n:858327)

;Channel A:Details
;Name:3A
;Graph Color:RGB(14,104,168)
;Units:W
;Settings:Measuring:Power
;Settings:Wavelength:532
;Settings:Range:AUTO

;Channel A:Statistics
;Min:-7.400mW            
;Max:390.0mW             
;Average:217.5mW             
;Std.Dev.:163.2mW             
;Overrange:0                   
;--------------------


;First Pulse Arrived : 23/11/2022 at 17:25:59
  Timestamp   	  Channel A  	
         0.000	  3.880e-01 	
         0.063	  3.880e-01 	
         0.128	  3.880e-01 	
         0.225	  3.880e-01 	
         0.289	  3.880e-01 	
         0.351	  3.880e-01 	
         0.415	  3.880e-01 	
         0.479	  3.880e-01 	
         0.544	  3.880e-01 	
         0.607	  3.880e-01 	
         0.673	  3.880e-01 	
         0.736	  3.880e-01 	
         0.800	  3.880e-01 	
         0.863	  3.880e-01 	
         0.928	  3.880e-01 	
         1.025	  3.880e-01 	
         1.088	  3.880e-01 	
         1.152	  3.880e-01 	
         1.216	  3.880e-01 	
         1.279	  3.880e-01 	
         1.345	  3.880e-01 	
         1.408	  3.880e-01 	
         1.472	  3.880e-01 	
         1.535	  3.880e-01 	
         1.599	  3.880e-01 	
         1.664	  3.880e-01 	
         1.728	  3.880e-01 	
         1.824	  3.880e-01 	
         1.888	  3.880e-01 	
         1.952	  3.880e-01 	
         2.015	  3.880e-01 	
         2.079	  3.880e-01 	
         2.144	  3.880e-01 	
         2.208	  3.880e-01 	
         2.272	  3.880e-01 	
         2.336	  3.880e-01 	
         2.400	  3.880e-01 	
         2.463	  3.880e-01 	
         2.528	  3.880e-01 	
         2.624	  3.880e-01 	
         2.687	  3.880e-01 	
         2.752	  3.880e-01 	
         2.816	  3.880e-01 	
         2.880	  3.880e-01 	
         2.944	  3.880e-01 	
         3.008	  3.880e-01 	
         3.072	  3.880e-01 	
         3.136	  3.880e-01 	
         3.200	  3.880e-01 	
         3.263	  3.880e-01 	
         3.328	  3.880e-01 	
         3.424	  3.880e-01 	
         3.488	  3.880e-01 	
         3.552	  3.880e-01 	
         3.616	  3.880e-01 	
         3.679	  3.880e-01 	
         3.744	  3.870e-01 	
         3.808	  3.870e-01 	
         3.871	  3.870e-01 	
         3.936	  3.870e-01 	
         4.001	  3.870e-01 	
         4.063	  3.870e-01 	
         4.128	  3.870e-01 	
         4.224	  3.870e-01 	
         4.288	  3.870e-01 	
         4.352	  3.870e-01 	
         4.415	  3.870e-01 	
         4.479	  3.870e-01 	
         4.543	  3.870e-01 	
         4.608	  3.870e-01 	
         4.672	  3.870e-01 	
         4.736	  3.870e-01 	
         4.801	  3.870e-01 	
         4.863	  3.870e-01 	
         4.928	  3.880e-01 	
         5.025	  3.880e-01 	
         5.088	  3.880e-01 	
         5.152	  3.880e-01 	
         5.216	  3.880e-01 	
         5.279	  3.880e-01 	
         5.344	  3.880e-01 	
         5.407	  3.880e-01 	
         5.472	  3.880e-01 	
         5.535	  3.880e-01 	
         5.600	  3.880e-01 	
         5.664	  3.880e-01 	
         5.728	  3.880e-01 	
         5.825	  3.880e-01 	
         5.888	  3.880e-01 	
         5.952	  3.880e-01 	
         6.015	  3.880e-01 	
         6.080	  3.880e-01 	
         6.143	  3.880e-01 	
         6.208	  3.880e-01 	
         6.272	  3.880e-01 	
         6.335	  3.880e-01 	
         6.400	  3.880e-01 	
         6.463	  3.880e-01 	
         6.528	  3.880e-01 	
         6.624	  3.880e-01 	
         6.689	  3.880e-01 	
         6.752	  3.880e-01 	
         6.816	  3.880e-01 	
         6.879	  3.880e-01 	
         6.944	  3.880e-01 	
         7.008	  3.880e-01 	
         7.073	  3.880e-01 	
         7.137	  3.880e-01 	
         7.200	  3.880e-01 	
         7.263	  3.880e-01 	
         7.328	  3.880e-01 	
         7.424	  3.880e-01 	
         7.488	  3.880e-01 	
         7.551	  3.880e-01 	
         7.617	  3.880e-01 	
         7.680	  3.880e-01 	
         7.744	  3.880e-01 	
         7.808	  3.880e-01 	
         7.872	  3.880e-01 	
         7.936	  3.880e-01 	
         8.000	  3.880e-01 	
         8.065	  3.880e-01 	
         8.127	  3.880e-01 	
         8.192	  3.880e-01 	
         8.288	  3.880e-01 	
         8.352	  3.880e-01 	
         8.416	  3.880e-01 	
         8.479	  3.880e-01 	
         8.544	  3.880e-01 	
         8.608	  3.880e-01 	
         8.672	  3.880e-01 	
         8.736	  3.880e-01 	
         8.801	  3.880e-01 	
         8.864	  3.880e-01 	
         8.927	  3.880e-01 	
         8.992	  3.880e-01 	
         9.089	  3.880e-01 	
         9.152	  3.880e-01 	
         9.216	  3.880e-01 	
         9.279	  3.880e-01 	
         9.344	  3.880e-01 	
         9.408	  3.880e-01 	
         9.472	  3.880e-01 	
         9.536	  3.880e-01 	
         9.600	  3.880e-01 	
         9.664	  3.880e-01 	
         9.727	  3.880e-01 	
         9.824	  3.880e-01 	
         9.887	  3.880e-01 	
         9.952	  3.880e-01 	
        10.015	  3.880e-01 	
        10.080	  3.880e-01 	
        10.144	  3.880e-01 	
        10.208	  3.880e-01 	
        10.272	  3.880e-01 	
        10.335	  3.880e-01 	
        10.400	  3.880e-01 	
        10.464	  3.880e-01 	
        10.527	  3.880e-01 	
        10.591	  3.880e-01 	
        10.688	  3.880e-01 	
        10.752	  3.880e-01 	
        10.816	  3.880e-01 	
        10.880	  3.880e-01 	
        10.944	  3.880e-01 	
        11.009	  3.880e-01 	
        11.072	  3.880e-01 	
        11.136	  3.880e-01 	
        11.200	  3.880e-01 	
        11.264	  3.880e-01 	
        11.327	  3.880e-01 	
        11.392	  3.880e-01 	
        11.488	  3.880e-01 	
        11.552	  3.880e-01 	
        11.615	  3.880e-01 	
        11.679	  3.880e-01 	
        11.743	  3.880e-01 	
        11.808	  3.880e-01 	
        11.872	  3.880e-01 	
        11.936	  3.880e-01 	
        12.000	  3.880e-01 	
        12.064	  3.880e-01 	
        12.127	  3.880e-01 	
        12.192	  3.880e-01 	
        12.288	  3.880e-01 	
        12.352	  3.880e-01 	
        12.416	  3.880e-01 	
        12.480	  3.880e-01 	
        12.544	  3.880e-01 	
        12.608	  3.880e-01 	
        12.673	  3.880e-01 	
        12.737	  3.880e-01 	
        12.800	  3.880e-01 	
        12.863	  3.880e-01 	
        12.927	  3.880e-01 	
        12.991	  3.880e-01 	
        13.087	  3.880e-01 	
        13.152	  3.880e-01 	
        13.216	  3.880e-01 	
        13.279	  3.880e-01 	
        13.343	  3.880e-01 	
        13.408	  3.880e-01 	
        13.472	  3.880e-01 	
        13.536	  3.880e-01 	
        13.600	  3.880e-01 	
        13.664	  3.880e-01 	
        13.728	  3.880e-01 	
        13.792	  3.880e-01 	
        13.888	  3.880e-01 	
        13.951	  3.880e-01 	
        14.016	  3.880e-01 	
        14.080	  3.880e-01 	
        14.143	  3.880e-01 	
        14.208	  3.880e-01 	
        14.272	  3.880e-01 	
        14.336	  3.880e-01 	
        14.400	  3.880e-01 	
        14.464	  3.880e-01 	
        14.528	  3.880e-01 	
        14.591	  3.880e-01 	
        14.689	  3.880e-01 	
        14.751	  3.880e-01 	
        14.816	  3.880e-01 	
        14.880	  3.880e-01 	
        14.943	  3.880e-01 	
        15.008	  3.880e-01 	
        15.071	  3.880e-01 	
        15.135	  3.880e-01 	
        15.200	  3.880e-01 	
        15.263	  3.880e-01 	
        15.327	  3.880e-01 	
        15.392	  3.880e-01 	
        15.487	  3.880e-01 	
        15.552	  3.880e-01 	
        15.615	  3.880e-01 	
        15.680	  3.880e-01 	
        15.744	  3.880e-01 	
        15.809	  3.880e-01 	
        15.872	  3.880e-01 	
        15.936	  3.880e-01 	
        16.000	  3.880e-01 	
        16.064	  3.880e-01 	
        16.127	  3.880e-01 	
        16.192	  3.880e-01 	
        16.289	  3.880e-01 	
        16.352	  3.890e-01 	
        16.416	  3.890e-01 	
        16.480	  3.890e-01 	
        16.544	  3.890e-01 	
        16.608	  3.890e-01 	
        16.672	  3.890e-01 	
        16.736	  3.890e-01 	
        16.800	  3.890e-01 	
        16.864	  3.890e-01 	
        16.927	  3.890e-01 	
        16.992	  3.890e-01 	
        17.088	  3.890e-01 	
        17.152	  3.890e-01 	
        17.215	  3.890e-01 	
        17.280	  3.890e-01 	
        17.343	  3.890e-01 	
        17.408	  3.890e-01 	
        17.471	  3.890e-01 	
        17.537	  3.890e-01 	
        17.599	  3.890e-01 	
        17.663	  3.890e-01 	
        17.727	  3.890e-01 	
        17.791	  3.890e-01 	
        17.888	  3.890e-01 	
        17.951	  3.890e-01 	
        18.015	  3.880e-01 	
        18.080	  3.890e-01 	
        18.143	  3.880e-01 	
        18.208	  3.880e-01 	
        18.272	  3.880e-01 	
        18.336	  3.880e-01 	
        18.400	  3.880e-01 	
        18.463	  3.880e-01 	
        18.528	  3.880e-01 	
        18.593	  3.880e-01 	
        18.687	  3.880e-01 	
        18.753	  3.880e-01 	
        18.817	  3.890e-01 	
        18.879	  3.890e-01 	
        18.943	  3.890e-01 	
        19.007	  3.890e-01 	
        19.072	  3.890e-01 	
        19.136	  3.890e-01 	
        19.200	  3.890e-01 	
        19.264	  3.890e-01 	
        19.328	  3.890e-01 	
        19.392	  3.890e-01 	
        19.488	  3.890e-01 	
        19.552	  3.890e-01 	
        19.617	  3.890e-01 	
        19.679	  3.890e-01 	
        19.743	  3.890e-01 	
        19.808	  3.890e-01 	
        19.872	  3.890e-01 	
        19.936	  3.890e-01 	
        20.000	  3.890e-01 	
        20.064	  3.890e-01 	
        20.128	  3.890e-01 	
        20.192	  3.890e-01 	
        20.288	  3.890e-01 	
        20.352	  3.890e-01 	
        20.416	  3.890e-01 	
        20.480	  3.890e-01 	
        20.543	  3.890e-01 	
        20.607	  3.890e-01 	
        20.672	  3.890e-01 	
        20.736	  3.890e-01 	
        20.799	  3.890e-01 	
        20.864	  3.890e-01 	
        20.927	  3.890e-01 	
        20.992	  3.890e-01 	
        21.088	  3.890e-01 	
        21.152	  3.890e-01 	
        21.215	  3.890e-01 	
        21.280	  3.890e-01 	
        21.344	  3.890e-01 	
        21.408	  3.890e-01 	
        21.472	  3.890e-01 	
        21.536	  3.890e-01 	
        21.600	  3.890e-01 	
        21.664	  3.890e-01 	
        21.727	  3.890e-01 	
        21.792	  3.890e-01 	
        21.888	  3.890e-01 	
        21.952	  3.890e-01 	
        22.017	  3.890e-01 	
        22.080	  3.890e-01 	
        22.144	  3.890e-01 	
        22.208	  3.890e-01 	
        22.272	  3.890e-01 	
        22.336	  3.890e-01 	
        22.400	  3.890e-01 	
        22.463	  3.890e-01 	
        22.527	  3.890e-01 	
        22.592	  3.890e-01 	
        22.656	  3.890e-01 	
        22.752	  3.890e-01 	
        22.816	  3.890e-01 	
        22.880	  3.890e-01 	
        22.943	  3.890e-01 	
        23.008	  3.890e-01 	
        23.072	  3.890e-01 	
        23.135	  3.890e-01 	
        23.200	  3.890e-01 	
        23.264	  3.890e-01 	
        23.328	  3.890e-01 	
        23.392	  3.890e-01 	
        23.456	  3.890e-01 	
        23.551	  3.890e-01 	
        23.616	  3.890e-01 	
        23.680	  3.890e-01 	
        23.743	  3.890e-01 	
        23.808	  3.890e-01 	
        23.872	  3.890e-01 	
        23.936	  3.890e-01 	
        23.999	  3.890e-01 	
        24.064	  3.890e-01 	
        24.128	  3.890e-01 	
        24.192	  3.890e-01 	
        24.256	  3.890e-01 	
        24.352	  3.890e-01 	
        24.415	  3.890e-01 	
        24.480	  3.890e-01 	
        24.543	  3.890e-01 	
        24.608	  3.890e-01 	
        24.672	  3.890e-01 	
        24.736	  3.900e-01 	
        24.801	  3.900e-01 	
        24.864	  3.900e-01 	
        24.927	  3.900e-01 	
        24.992	  3.900e-01 	
        25.056	  3.900e-01 	
        25.152	  3.900e-01 	
        25.216	  3.900e-01 	
        25.280	  3.900e-01 	
        25.344	  3.900e-01 	
        25.408	  3.900e-01 	
        25.472	  3.900e-01 	
        25.536	  3.900e-01 	
        25.600	  3.900e-01 	
        25.664	  3.900e-01 	
        25.727	  3.900e-01 	
        25.791	  3.900e-01 	
        25.856	  3.900e-01 	
        25.952	  3.900e-01 	
        26.016	  3.900e-01 	
        26.080	  3.900e-01 	
        26.143	  3.900e-01 	
        26.208	  3.900e-01 	
        26.272	  3.900e-01 	
        26.336	  3.900e-01 	
        26.400	  3.900e-01 	
        26.464	  3.900e-01 	
        26.528	  3.900e-01 	
        26.592	  3.900e-01 	
        26.656	  3.900e-01 	
        26.752	  3.900e-01 	
        26.816	  3.900e-01 	
        26.880	  3.900e-01 	
        26.943	  3.900e-01 	
        27.007	  3.900e-01 	
        27.071	  3.900e-01 	
        27.136	  3.900e-01 	
        27.199	  3.900e-01 	
        27.264	  3.900e-01 	
        27.327	  3.900e-01 	
        27.391	  3.900e-01 	
        27.456	  3.900e-01 	
        27.553	  3.900e-01 	
        27.615	  3.900e-01 	
        27.680	  3.900e-01 	
        27.744	  3.900e-01 	
        27.808	  3.900e-01 	
        27.873	  3.900e-01 	
        27.936	  3.900e-01 	
        28.000	  3.900e-01 	
        28.063	  3.900e-01 	
        28.128	  3.900e-01 	
        28.192	  3.900e-01 	
        28.256	  3.900e-01 	
        28.352	  3.900e-01 	
        28.416	  3.900e-01 	
        28.480	  3.900e-01 	
        28.544	  3.900e-01 	
        28.608	  3.900e-01 	
        28.672	  3.900e-01 	
        28.736	  3.900e-01 	
        28.801	  3.900e-01 	
        28.864	  3.900e-01 	
        28.928	  3.900e-01 	
        28.991	  3.900e-01 	
        29.056	  3.900e-01 	
        29.152	  3.900e-01 	
        29.216	  3.900e-01 	
        29.280	  3.900e-01 	
        29.343	  3.900e-01 	
        29.408	  3.900e-01 	
        29.471	  3.900e-01 	
        29.535	  3.900e-01 	
        29.601	  3.900e-01 	
        29.664	  3.900e-01 	
        29.728	  3.900e-01 	
        29.791	  3.900e-01 	
        29.856	  3.900e-01 	
        29.952	  3.870e-01 	
        30.016	  3.830e-01 	
        30.080	  3.780e-01 	
        30.144	  3.730e-01 	
        30.208	  3.680e-01 	
        30.273	  3.630e-01 	
        30.336	  3.590e-01 	
        30.400	  3.560e-01 	
        30.465	  3.540e-01 	
        30.528	  3.510e-01 	
        30.591	  3.480e-01 	
        30.656	  3.430e-01 	
        30.751	  3.360e-01 	
        30.816	  3.260e-01 	
        30.880	  3.140e-01 	
        30.944	  3.000e-01 	
        31.008	  2.830e-01 	
        31.072	  2.650e-01 	
        31.136	  2.460e-01 	
        31.200	  2.280e-01 	
        31.264	  2.090e-01 	
        31.327	  1.910e-01 	
        31.391	  1.730e-01 	
        31.456	  1.560e-01 	
        31.551	  1.400e-01 	
        31.616	  1.250e-01 	
        31.680	  1.100e-01 	
        31.743	  9.700e-02 	
        31.807	  8.500e-02 	
        31.872	  7.400e-02 	
        31.936	  6.400e-02 	
        32.001	  5.500e-02 	
        32.064	  4.800e-02 	
        32.128	  4.100e-02 	
        32.191	  3.500e-02 	
        32.256	  3.000e-02 	
        32.352	  2.500e-02 	
        32.416	  2.200e-02 	
        32.480	  1.800e-02 	
        32.544	  1.600e-02 	
        32.608	  1.400e-02 	
        32.672	  1.200e-02 	
        32.736	  1.100e-02 	
        32.799	  9.000e-03 	
        32.864	  9.000e-03 	
        32.928	  8.000e-03 	
        32.991	  7.000e-03 	
        33.408	 -7.400e-03 	
        33.471	 -6.100e-03 	
        33.535	 -5.500e-03 	
        33.600	 -5.100e-03 	
        33.663	 -4.700e-03 	
        33.728	 -4.300e-03 	
        33.791	 -3.800e-03 	
        33.855	 -3.300e-03 	
        33.952	 -2.600e-03 	
        34.015	 -1.900e-03 	
        34.080	 -1.100e-03 	
        34.144	 -3.000e-04 	
        34.207	  4.000e-04 	
        34.272	  1.100e-03 	
        34.336	  1.700e-03 	
        34.400	  2.300e-03 	
        34.464	  2.800e-03 	
        34.528	  3.200e-03 	
        34.591	  3.600e-03 	
        34.657	  4.000e-03 	
        34.753	  4.300e-03 	
        34.816	  4.500e-03 	
        34.880	  4.700e-03 	
        34.943	  4.900e-03 	
        35.007	  5.000e-03 	
        35.072	  5.100e-03 	
        35.137	  5.100e-03 	
        35.200	  5.200e-03 	
        35.264	  5.200e-03 	
        35.327	  5.200e-03 	
        35.391	  5.200e-03 	
        35.455	  5.200e-03 	
        35.552	  5.200e-03 	
        35.617	  5.100e-03 	
        35.680	  5.100e-03 	
        35.744	  5.000e-03 	
        35.807	  5.000e-03 	
        35.872	  5.000e-03 	
        35.936	  4.900e-03 	
        36.000	  4.900e-03 	
        36.064	  4.900e-03 	
        36.127	  4.900e-03 	
        36.191	  4.900e-03 	
        36.256	  4.900e-03 	
        36.319	  4.900e-03 	
        36.415	  4.900e-03 	
        36.480	  4.900e-03 	
        36.543	  4.900e-03 	
        36.607	  4.900e-03 	
        36.673	  4.900e-03 	
        36.736	  5.000e-03 	
        36.799	  5.000e-03 	
        36.863	  5.000e-03 	
        36.928	  5.000e-03 	
        36.991	  5.100e-03 	
        37.056	  5.200e-03 	
        37.120	  5.400e-03 	
        37.216	  5.600e-03 	
        37.280	  5.800e-03 	
        37.344	  6.100e-03 	
        37.791	  3.010e-03 	
        37.855	  3.080e-03 	
        37.921	  3.420e-03 	
        38.016	  3.930e-03 	
        38.080	  4.540e-03 	
        38.144	  5.190e-03 	
        38.207	  5.850e-03 	
        38.271	  6.480e-03 	
        38.336	  7.070e-03 	
        38.399	  7.610e-03 	
        38.464	  8.100e-03 	
        38.528	  8.560e-03 	
        38.591	  8.970e-03 	
        38.656	  9.360e-03 	
        38.720	  9.740e-03 	
        38.816	  1.010e-02 	
        38.879	  1.046e-02 	
        38.944	  1.084e-02 	
        39.007	  1.122e-02 	
        39.072	  1.160e-02 	
        39.136	  1.195e-02 	
        39.200	  1.226e-02 	
        39.264	  1.253e-02 	
        39.328	  1.276e-02 	
        39.391	  1.296e-02 	
        39.456	  1.313e-02 	
        39.520	  1.329e-02 	
        39.615	  1.342e-02 	
        39.680	  1.353e-02 	
        39.744	  1.361e-02 	
        39.808	  1.368e-02 	
        39.871	  1.373e-02 	
        39.936	  1.375e-02 	
        40.000	  1.375e-02 	
        40.064	  1.373e-02 	
        40.127	  1.370e-02 	
        40.191	  1.365e-02 	
        40.256	  1.361e-02 	
        40.320	  1.357e-02 	
        40.416	  1.353e-02 	
        40.480	  1.349e-02 	
        40.544	  1.347e-02 	
        40.607	  1.344e-02 	
        40.672	  1.342e-02 	
        40.735	  1.340e-02 	
        40.800	  1.336e-02 	
        40.863	  1.333e-02 	
        40.927	  1.331e-02 	
        40.992	  1.330e-02 	
        41.056	  1.327e-02 	
        41.120	  1.320e-02 	
        41.216	  1.313e-02 	
        41.280	  1.304e-02 	
        41.344	  1.289e-02 	
        41.408	  1.269e-02 	
        41.472	  1.242e-02 	
        41.536	  1.210e-02 	
        41.599	  1.175e-02 	
        41.663	  1.139e-02 	
        41.729	  1.103e-02 	
        41.791	  1.069e-02 	
        41.856	  1.039e-02 	
        41.920	  1.013e-02 	
        42.017	  9.920e-03 	
        42.080	  9.770e-03 	
        42.144	  9.670e-03 	
        42.207	  9.620e-03 	
        42.272	  9.610e-03 	
        42.336	  9.630e-03 	
        42.399	  9.680e-03 	
        42.463	  9.750e-03 	
        42.527	  9.830e-03 	
        42.591	  9.920e-03 	
        42.655	  1.000e-02 	
        42.720	  1.009e-02 	
        42.815	  1.016e-02 	
        42.880	  1.022e-02 	
        42.944	  1.027e-02 	
        43.007	  1.031e-02 	
        43.072	  1.034e-02 	
        43.135	  1.036e-02 	
        43.200	  1.037e-02 	
        43.264	  1.038e-02 	
        43.327	  1.039e-02 	
        43.392	  1.040e-02 	
        43.456	  1.042e-02 	
        43.519	  1.046e-02 	
        43.616	  1.052e-02 	
        43.680	  1.061e-02 	
        43.744	  1.072e-02 	
        43.808	  1.085e-02 	
        43.872	  1.100e-02 	
        43.935	  1.118e-02 	
        44.001	  1.138e-02 	
        44.063	  1.159e-02 	
        44.128	  1.182e-02 	
        44.192	  1.206e-02 	
        44.256	  1.231e-02 	
        44.320	  1.255e-02 	
        44.416	  1.279e-02 	
        44.479	  1.302e-02 	
        44.544	  1.323e-02 	
        44.607	  1.342e-02 	
